File: Cluster-based Hyperspectral Unmixing/Matlab code/Data/USGS_cvAVIRISc1997_LIB2/Spectra_folder/s07_AV97_Chalcedony_CU91-6A_XRD_NIC4aa_RREF.txt
s07_AV97 Record=746: Chalcedony CU91-6A XRD       NIC4aa RREF
-1.23e+34
-1.23e+34
-1.23e+34
-1.23e+34
-1.23e+34
-1.23e+34
-1.23e+34
-1.23e+34
-1.23e+34
-1.23e+34
-1.23e+34
-1.23e+34
-1.23e+34
-1.23e+34
-1.23e+34
-1.23e+34
-1.23e+34
-1.23e+34
-1.23e+34
-1.23e+34
-1.23e+34
-1.23e+34
-1.23e+34
-1.23e+34
-1.23e+34
-1.23e+34
-1.23e+34
-1.23e+34
-1.23e+34
-1.23e+34
-1.23e+34
-1.23e+34
-1.23e+34
-1.23e+34
-1.23e+34
-1.23e+34
-1.23e+34
-1.23e+34
-1.23e+34
-1.23e+34
-1.23e+34
-1.23e+34
-1.23e+34
-1.23e+34
-1.23e+34
-1.23e+34
-1.23e+34
-1.23e+34
-1.23e+34
-1.23e+34
-1.23e+34
-1.23e+34
-1.23e+34
-1.23e+34
-1.23e+34
-1.23e+34
-1.23e+34
-1.23e+34
-1.23e+34
-1.23e+34
-1.23e+34
-1.23e+34
-1.23e+34
-1.23e+34
-1.23e+34
-1.23e+34
-1.23e+34
-1.23e+34
-1.23e+34
-1.23e+34
-1.23e+34
-1.23e+34
-1.23e+34
-1.23e+34
-1.23e+34
-1.23e+34
-1.23e+34
-1.23e+34
-1.23e+34
-1.23e+34
-1.23e+34
-1.23e+34
-1.23e+34
-1.23e+34
-1.23e+34
-1.23e+34
-1.23e+34
-1.23e+34
-1.23e+34
-1.23e+34
-1.23e+34
-1.23e+34
-1.23e+34
-1.23e+34
-1.23e+34
-1.23e+34
-1.23e+34
-1.23e+34
-1.23e+34
-1.23e+34
-1.23e+34
-1.23e+34
-1.23e+34
-1.23e+34
-1.23e+34
-1.23e+34
-1.23e+34
-1.23e+34
-1.23e+34
-1.23e+34
-1.23e+34
-1.23e+34
-1.23e+34
-1.23e+34
-1.23e+34
-1.23e+34
-1.23e+34
-1.23e+34
-1.23e+34
-1.23e+34
-1.23e+34
-1.23e+34
-1.23e+34
-1.23e+34
-1.23e+34
-1.23e+34
-1.23e+34
-1.23e+34
-1.23e+34
-1.23e+34
-1.23e+34
-1.23e+34
 0.440451
 0.442599
 0.445113
 0.447733
 0.450235
 0.452229
 0.453767
 0.455176
 0.456852
 0.458732
 0.460802
 0.46284
 0.464453
 0.465632
 0.466551
 0.467535
 0.468687
 0.470149
 0.471609
 0.472986
 0.474082
 0.474795
 0.475185
 0.475512
 0.47616
 0.476865
 0.477259
 0.477174
 0.477298
 0.476149
 0.473584
 0.471602
 0.471406
 0.472135
 0.47328
 0.474681
 0.476234
 0.477907
 0.479416
 0.480632
 0.48154
 0.482032
 0.482235
 0.482262
 0.482443
 0.482771
 0.483158
 0.48361
 0.4841
 0.484332
 0.484418
 0.484208
 0.483707
 0.483026
 0.482032
 0.480915
 0.479485
 0.477656
 0.474788
 0.471055
 0.468688
 0.468619
 0.469447
 0.469837
 0.469647
 0.469114
 0.468932
 0.468909
 0.468966
 0.469074
 0.469396
 0.470086
 0.470849
 0.471441
 0.471742
 0.471666
 0.471642
 0.471281
 0.470428
 0.469462
 0.468266
 0.466921
 0.465339
 0.463463
 0.461583
 0.459812
 0.457997
 0.456315
 0.454797
 0.453459
 0.452142
 0.450703